IESNA:LM-63-2002
[TEST] 100767R1
[TESTDATE] 1/31/2008
[ISSUEDATE] 1/15/2014
[TESTLAB] ACUITY BRANDS LIGHTING GRANVILLE LAB
[TESTMETHOD] IES LM-46:2004
[MANUFAC] Lithonia Lighting
[LUMCAT] REVX 250M RW T73 SCWA (COATED)
[LUMINAIRE] 2'X2' RECESSED SQUARE GENERAL AREA LIGHTING WITH REGRESSED WHITE DOOR FRAME AND #T73 TEMPERED GLASS LENS
[LAMPCAT] MVR250/C/VBU/PA
[LAMP] 250W COATED PULSE-START METAL HALIDE
[BALLAST] 
[BALLASTCAT] 
[DISTRIBUTION] DIRECT, SC-0=1.79, SC-90=1.74
[_LAMPPOSITION] 0 , 0
[_LAMPTYPE] METAL HALIDE PULSE START (250W AND ABOVE)
[_LAMPWATTAGE] 250
[_LAMPLUMENS] 21500
[_MOUNTING] Recessed
[_FAMILY] REV
[_PRODUCTID] 7a109be6-447e-4242-94e0-4094143dcbd3
[_INFOLINK] http://www.lithonia.com/photometrics.aspx?fid=138175
[OTHER] REGRESSED ALUMINUM DOOR; CORNING 73 GLASS LENS; SPREAD RE-270
[_TERCAT] Highbay, Nonlinear                                
[_TER] 31
TILT=NONE
1  21500  1  37  5  1  1  2  2  0
1  1  282
0  2.5  5  7.5  10  12.5  15  17.5  20  22.5  25  27.5  30
32.5  35  37.5  40  42.5  45  47.5  50  52.5  55  57.5  60
62.5  65  67.5  70  72.5  75  77.5  80  82.5  85  87.5  90
0  22.5  45  67.5  90
5062.2  5033.7  5011.3  4968.6  4937.8  4918.2  4934.5  5027.2
5195.6  5451.6  5751.8  6046.7  6329.6  6556.2  6691.2  6657.3
6420.5  5977.8  5368.1  4695.6  4033.7  3426.8  2855.1  2355.6
1934.4  1608.1  1337.8  1115.7  949.3  815.5  687  579.9
468.8  344.4  200.6  57.8  4
5062.2  5079.2  5063  5029.3  4982  4944.9  4946.8  4977.9
5066.5  5215.3  5430.7  5677.2  5950.3  6205.6  6387.2  6440.8
6272.9  5831.3  5207.3  4534.6  3915.7  3352  2830.3  2357.8
1944.3  1592.3  1305.5  1108.9  969.9  841.5  705.2  570.1
441.1  317.8  187.3  59.3  3.7
5062.2  5079.9  5068.2  5039.8  5000.2  4960  4935  4948.2
5008.8  5128.3  5317.8  5561.5  5823.6  6084.1  6290.8  6338.9
6187.5  5825.6  5278  4659.3  4072.9  3535.1  3005.6  2497.9
2035.5  1654.9  1354.3  1128  976.2  855.6  721.7  576.7
450.6  330.2  196  65.1  3.8
5062.2  5050.3  5042  5028  5013.8  5009.7  5052.4  5161.8
5348.3  5603.1  5878.2  6171.5  6427.8  6634.6  6726.6  6619.1
6179.6  5592.7  4833  4091.8  3427.3  2835.3  2375.1  2051.7
1806.7  1556.1  1275.3  1033.7  871.5  767.6  682.6  578
452.5  329.5  201.5  63.9  4.2
5062.2  5054.7  5047.4  5035  5034.3  5063.6  5151.4  5334.3
5605  5931.4  6284.1  6594.4  6791.3  6922  6902.1  6642.3
6159.1  5457.7  4665.6  3895.4  3239  2760.6  2368.5  2114.9
1842.6  1517.3  1198.7  974.3  859  771.5  670.7  554.4
441.3  329.5  198.1  57  3.4
